#---------------------------------
#  wavelength xes
  0.791827    8.644158
  0.791802    8.923445
  0.791776    9.222304
  0.791751    9.416036
  0.791726    9.638060
  0.791700    9.856204
  0.791675    10.023844
  0.791650    10.320773
  0.791625    10.496837
  0.791599    10.819628
  0.791574    11.659662
  0.791549    12.515617
  0.791524    11.925926
  0.791498    21.266333
  0.791473    28.198391
  0.791448    13.733111
  0.791422    14.307918
  0.791397    15.182888
  0.791372    15.893261
  0.791347    16.398007
  0.791321    16.877588
  0.791296    17.555997
  0.791271    18.293651
  0.791246    19.233004
  0.791220    20.262898
  0.791195    21.583053
  0.791170    22.581062
  0.791145    23.679589
  0.791119    25.279381
  0.791094    26.589786
  0.791069    28.381925
  0.791044    30.478731
  0.791019    33.059458
  0.790993    35.467236
  0.790968    38.546415
  0.790943    42.156312
  0.790918    45.903506
  0.790892    50.355839
  0.790867    55.433323
  0.790842    62.145527
  0.790817    70.723300
  0.790791    78.829785
  0.790766    88.279400
  0.790741    100.112718
  0.790716    113.508581
  0.790691    128.967767
  0.790665    146.764687
  0.790640    163.961803
  0.790615    183.219895
  0.790590    201.786169
  0.790565    221.874658
  0.790539    236.003871
  0.790514    247.005181
  0.790489    253.672011
  0.790464    254.222715
  0.790439    248.740537
  0.790413    238.404570
  0.790388    221.833409
  0.790363    207.992048
  0.790338    191.212494
  0.790313    173.451299
  0.790287    155.229911
  0.790262    138.011533
  0.790237    121.656110
  0.790212    109.548190
  0.790187    95.739373
  0.790162    86.116270
  0.790136    77.378713
  0.790111    68.816357
  0.790086    62.769890
  0.790061    56.423561
  0.790036    52.217584
  0.790010    47.297322
  0.789985    43.213705
  0.789960    39.902262
  0.789935    36.762832
  0.789910    34.504491
  0.789885    31.841099
  0.789859    29.793293
  0.789834    27.775727
  0.789809    26.301224
  0.789784    24.996091
  0.789759    23.784560
  0.789734    22.723280
  0.789709    21.725897
  0.789683    20.741056
  0.789658    20.007964
  0.789633    19.357859
  0.789608    18.505274
  0.789583    17.857996
  0.789558    17.173244
  0.789533    16.605134
  0.789507    16.145498
  0.789482    15.670567
  0.789457    15.177835
  0.789432    14.799912
  0.789407    14.429852
  0.789382    14.118870
  0.789357    13.845373
  0.789331    13.498227
  0.789306    13.115385
  0.789281    12.877752
  0.789256    12.683782
  0.789231    12.414440
